Date and Time:                Wed Apr 9 16:50:27.000 2025
Software Version:             4.32.30000.0
Temperature (C):              -60
Model:                        DU897_EXF
Data Type:                    Counts
Acquisition Mode:             Real Time
Trigger Mode:                 Internal
Exposure Time (secs):         0.4
Readout Mode:                 Image
Horizontal Binning:           1
Vertical Binning:             56
Clockwise rotation:           false
Anti-Clockwise rotation:      false
Extended Data Range:          off
Horizontally flipped:         true
Vertically flipped:           false
Vertical Shift Speed (usecs): 3.3
Pixel Readout Rate (MHz):     17
Baseline offset:              0
Number of prescans:           0
Baseline Clamp:               ON
Clock Amplitude:              Normal
Output Amplifier:             Electron Multiplying
EM Gain level:                10
Serial Number:                8484
Pre-Amplifier Gain:           1.000000
Count Convert Mode:           Counts
Spurious Noise Filter Mode:   No Filter
Photon counted:               false
Data Averaging Filter Mode:   Recursive Averaging Filter
Averaging Factor:             10
KY328i:
Serial Number:                
Wavelength (nm):              790
Grating Groove Density (l/mm):600.164
Grating Blaze:                750nm
Input Side Slit Width (um):   200



771.20898	511	
771.2829	511	
771.35681	513	
771.43066	506	
771.50458	516	
771.57849	513	
771.6524	513	
771.72626	512	
771.80017	511	
771.87408	509	
771.94794	507	
772.02185	510	
772.0957	506	
772.16962	501	
772.24347	502	
772.31738	498	
772.39124	501	
772.46515	505	
772.539	504	
772.61285	498	
772.68677	496	
772.76062	498	
772.83447	497	
772.90839	498	
772.98224	495	
773.05609	496	
773.12994	489	
773.2038	491	
773.27765	492	
773.35156	495	
773.42542	492	
773.49927	490	
773.57312	490	
773.64697	491	
773.72083	492	
773.79468	486	
773.86847	487	
773.94232	488	
774.01617	490	
774.09003	487	
774.16388	484	
774.23773	485	
774.31152	489	
774.38538	488	
774.45923	490	
774.53302	490	
774.60687	491	
774.68073	490	
774.75452	485	
774.82837	490	
774.90216	490	
774.97601	487	
775.0498	487	
775.12366	493	
775.19745	489	
775.27124	495	
775.34509	489	
775.41888	488	
775.49268	495	
775.56653	493	
775.64032	491	
775.71411	494	
775.7879	492	
775.86169	488	
775.93555	491	
776.00934	491	
776.08313	493	
776.15692	489	
776.23071	489	
776.3045	491	
776.3783	493	
776.45209	493	
776.52588	492	
776.59967	489	
776.6734	492	
776.74719	490	
776.82098	489	
776.89478	492	
776.96857	495	
777.0423	492	
777.11609	492	
777.18988	499	
777.26361	492	
777.3374	493	
777.41119	491	
777.48492	496	
777.55872	497	
777.63245	495	
777.70624	492	
777.77997	493	
777.85376	494	
777.92749	497	
778.00122	494	
778.07501	488	
778.14874	494	
778.22247	497	
778.2962	496	
778.37	493	
778.44373	494	
778.51746	497	
778.59119	495	
778.66492	496	
778.73865	493	
778.81238	495	
778.88617	494	
778.9599	497	
779.03357	497	
779.1073	498	
779.18103	498	
779.25476	495	
779.32849	495	
779.40222	496	
779.47595	497	
779.54968	500	
779.62335	501	
779.69708	502	
779.77081	499	
779.84448	497	
779.91821	500	
779.99194	498	
780.06561	498	
780.13934	501	
780.21301	500	
780.28674	497	
780.36041	497	
780.43414	498	
780.50781	499	
780.58154	497	
780.65521	500	
780.72888	501	
780.80261	502	
780.87628	499	
780.94995	495	
781.02362	498	
781.09735	498	
781.17102	497	
781.24469	499	
781.31836	499	
781.39203	501	
781.4657	502	
781.53937	501	
781.61304	499	
781.68671	503	
781.76038	505	
781.83405	500	
781.90771	499	
781.98138	502	
782.05505	501	
782.12866	498	
782.20233	500	
782.276	505	
782.34967	500	
782.42328	499	
782.49695	498	
782.57062	501	
782.64423	501	
782.7179	504	
782.7915	502	
782.86517	506	
782.93878	502	
783.01245	503	
783.08606	507	
783.15973	503	
783.23334	505	
783.30695	505	
783.38062	504	
783.45422	501	
783.52783	507	
783.6015	507	
783.67511	511	
783.74872	511	
783.82233	513	
783.89594	508	
783.96954	518	
784.04315	521	
784.11676	521	
784.19037	525	
784.26398	532	
784.33759	535	
784.41119	537	
784.4848	543	
784.55841	548	
784.63202	557	
784.70563	560	
784.77924	556	
784.85278	542	
784.92639	528	
785	513	
785.07355	514	
785.14716	528	
785.22076	562	
785.29431	618	
785.36792	663	
785.44147	703	
785.51508	732	
785.58862	756	
785.66223	776	
785.73578	790	
785.80933	807	
785.88293	810	
785.95648	822	
786.03003	828	
786.10364	819	
786.17719	822	
786.25073	817	
786.32428	821	
786.39789	820	
786.47144	829	
786.54498	834	
786.61853	826	
786.69208	836	
786.76563	844	
786.83917	854	
786.91272	858	
786.98627	874	
787.05981	884	
787.13336	895	
787.20685	905	
787.2804	917	
787.35394	923	
787.42749	916	
787.50098	891	
787.57452	863	
787.64807	829	
787.72156	799	
787.7951	785	
787.86865	793	
787.94214	810	
788.01569	840	
788.08917	843	
788.16272	836	
788.23621	822	
788.30975	799	
788.38324	762	
788.45673	743	
788.53027	731	
788.60376	734	
788.67725	731	
788.75073	735	
788.82428	762	
788.89777	763	
788.97125	757	
789.04474	729	
789.11823	708	
789.19171	695	
789.2652	683	
789.33868	674	
789.41217	672	
789.48566	667	
789.55914	654	
789.63263	652	
789.70612	643	
789.7796	646	
789.85303	645	
789.92651	644	
790	643	
790.07349	642	
790.14691	637	
790.2204	646	
790.29388	644	
790.36731	648	
790.4408	644	
790.51422	639	
790.58771	645	
790.66113	642	
790.73462	633	
790.80804	634	
790.88153	631	
790.95496	625	
791.02838	614	
791.10187	610	
791.17529	615	
791.24872	613	
791.32214	612	
791.39563	604	
791.46906	601	
791.54248	596	
791.61591	592	
791.68933	581	
791.76276	582	
791.83618	579	
791.90961	572	
791.98303	575	
792.05646	576	
792.12988	572	
792.20331	567	
792.27673	570	
792.3501	576	
792.42352	578	
792.49695	576	
792.57037	576	
792.64374	583	
792.71716	587	
792.79059	588	
792.86395	586	
792.93738	586	
793.01074	584	
793.08417	582	
793.15753	581	
793.23096	578	
793.30432	575	
793.37775	570	
793.45111	565	
793.52448	567	
793.5979	563	
793.67126	560	
793.74463	565	
793.81799	561	
793.89142	559	
793.96478	562	
794.03815	560	
794.11151	558	
794.18488	553	
794.25824	558	
794.3316	555	
794.40497	553	
794.47833	555	
794.5517	556	
794.62506	560	
794.69843	559	
794.77179	558	
794.84509	558	
794.91846	563	
794.99182	566	
795.06519	564	
795.13849	581	
795.21185	585	
795.28522	608	
795.35852	636	
795.43188	672	
795.50519	701	
795.57855	695	
795.65186	688	
795.72522	693	
795.79852	743	
795.87189	827	
795.94519	939	
796.01849	1025	
796.09186	1010	
796.16516	897	
796.23846	747	
796.31177	684	
796.38507	650	
796.45844	610	
796.53174	589	
796.60504	579	
796.67834	575	
796.75165	576	
796.82495	568	
796.89825	566	
796.97156	573	
797.04486	568	
797.11816	567	
797.19141	568	
797.26471	572	
797.33801	566	
797.41132	571	
797.48462	574	
797.55786	585	
797.63116	595	
797.70447	598	
797.77771	589	
797.85101	579	
797.92426	572	
797.99756	572	
798.0708	572	
798.1441	566	
798.21735	572	
798.29065	573	
798.36389	566	
798.43713	572	
798.51044	569	
798.58368	571	
798.65692	572	
798.73016	571	
798.80347	569	
798.87671	567	
798.94995	571	
799.02319	570	
799.09644	570	
799.16968	571	
799.24292	571	
799.31616	577	
799.3894	593	
799.46265	646	
799.53589	752	
799.60913	851	
799.68237	859	
799.75555	775	
799.8288	694	
799.90204	655	
799.97528	635	
800.04846	609	
800.1217	607	
800.19495	620	
800.26813	617	
800.34137	617	
800.41455	621	
800.48779	628	
800.56097	631	
800.63422	636	
800.7074	651	
800.78058	661	
800.85382	688	
800.927	714	
801.00018	724	
801.07343	678	
801.14661	614	
801.21979	589	
801.29297	579	
801.36615	581	
801.43939	581	
801.51257	578	
801.58575	577	
801.65894	579	
801.73212	580	
801.8053	578	
801.87842	577	
801.9516	577	
802.02478	580	
802.09796	582	
802.17114	585	
802.24432	581	
802.31744	578	
802.39063	579	
802.46381	590	
802.53693	590	
802.61011	603	
802.68329	613	
802.75641	612	
802.82959	602	
802.90271	602	
802.97589	618	
803.04901	633	
803.12213	647	
803.19531	641	
803.26843	636	
803.34161	638	
803.41473	666	
803.48785	802	
803.56097	1046	
803.63409	1305	
803.70728	1354	
803.7804	1051	
803.85352	758	
803.92664	643	
803.99976	610	
804.07288	604	
804.146	596	
804.21912	599	
804.29224	598	
804.36536	600	
804.43842	594	
804.51154	593	
804.58466	592	
804.65778	596	
804.7309	596	
804.80396	596	
804.87708	597	
804.9502	599	
805.02325	601	
805.09637	599	
805.16943	596	
805.24255	597	
805.31561	600	
805.38873	601	
805.46179	602	
805.53491	600	
805.60797	607	
805.68103	604	
805.75415	602	
805.82721	606	
805.90027	608	
805.97333	609	
806.04639	614	
806.11951	621	
806.19257	623	
806.26563	629	
806.33868	620	
806.41174	609	
806.4848	603	
806.55786	606	
806.63092	606	
806.70398	601	
806.77698	604	
806.85004	612	
806.9231	609	
806.99615	610	
807.06921	607	
807.14221	609	
807.21527	609	
807.28833	607	
807.36133	600	
807.43439	607	
807.50739	605	
807.58044	604	
807.65344	609	
807.7265	606	
807.7995	609	
807.87256	610	
807.94556	604	
808.01855	600	
808.09161	602	
808.16461	602	
808.23761	599	
808.31061	600	
808.38361	599	
808.45667	595	
808.52966	599	
808.60266	601	
808.67566	596	
808.74866	596	
